File: XRD/Task 1/Si.csv
Angle, TimePerStep, Intensity
20.04,0.5,2
20.44,0.5,1
20.84,0.5,6
21.24,0.5,6
21.64,0.5,6
22.04,0.5,7
22.44,0.5,8
22.84,0.5,17
23.24,0.5,25
23.64,0.5,14
24.04,0.5,1
24.44,0.5,5
24.84,0.5,6
25.24,0.5,8
25.64,0.5,7
26.04,0.5,9
26.44,0.5,3
26.84,0.5,7
27.24,0.5,18
27.64,0.5,13
28.04,0.5,26
28.44,0.5,824
28.84,0.5,10
29.24,0.5,4
29.64,0.5,5
30.04,0.5,8
30.44,0.5,3
30.84,0.5,6
31.24,0.5,3
31.64,0.5,3
32.04,0.5,2
32.44,0.5,5
32.84,0.5,4
33.24,0.5,4
33.64,0.5,3
34.04,0.5,4
34.44,0.5,0
34.84,0.5,3
35.24,0.5,5
35.64,0.5,4
36.04,0.5,6
36.44,0.5,7
36.84,0.5,2
37.24,0.5,1
37.64,0.5,3
38.04,0.5,7
38.44,0.5,1
38.84,0.5,2
39.24,0.5,2
39.64,0.5,4
40.04,0.5,2
40.44,0.5,1
40.84,0.5,2
41.24,0.5,1
41.64,0.5,2
42.04,0.5,0
42.44,0.5,5
42.84,0.5,3
43.24,0.5,3
43.64,0.5,0
44.04,0.5,7
44.44,0.5,4
44.84,0.5,4
45.24,0.5,10
45.64,0.5,4
46.04,0.5,9
46.44,0.5,5
46.84,0.5,14
47.24,0.5,498
47.64,0.5,15
48.04,0.5,6
48.44,0.5,7
48.84,0.5,4
49.24,0.5,9
49.64,0.5,5
50.04,0.5,1
50.44,0.5,2
50.84,0.5,4
51.24,0.5,4
51.64,0.5,4
52.04,0.5,3
52.44,0.5,5
52.84,0.5,2
53.24,0.5,3
53.64,0.5,11
54.04,0.5,2
54.44,0.5,4
54.84,0.5,3
55.24,0.5,7
55.64,0.5,14
56.04,0.5,218
56.44,0.5,15
56.84,0.5,1
57.24,0.5,3
57.64,0.5,2
58.04,0.5,1
58.44,0.5,4
58.84,0.5,0
59.24,0.5,1
59.64,0.5,4
60.04,0.5,1
60.44,0.5,2
60.84,0.5,3
61.24,0.5,4
61.64,0.5,5
62.04,0.5,3
62.44,0.5,0
62.84,0.5,6
63.24,0.5,3
63.64,0.5,1
64.04,0.5,1
64.44,0.5,2
64.84,0.5,4
65.24,0.5,2
65.64,0.5,3
66.04,0.5,1
66.44,0.5,3
66.84,0.5,3
67.24,0.5,0
67.64,0.5,2
68.04,0.5,1
68.44,0.5,2
68.84,0.5,6
69.24,0.5,26
69.64,0.5,2
70.04,0.5,2
70.44,0.5,1
70.84,0.5,5
71.24,0.5,3
71.64,0.5,1
72.04,0.5,4
72.44,0.5,3
72.84,0.5,3
73.24,0.5,0
73.64,0.5,2
74.04,0.5,1
74.44,0.5,2
74.84,0.5,1
75.24,0.5,2
75.64,0.5,3
76.04,0.5,12
76.44,0.5,56
76.84,0.5,9
77.24,0.5,2
77.64,0.5,1
78.04,0.5,2
78.44,0.5,2
78.84,0.5,1
79.24,0.5,2
79.64,0.5,4
80.04,0.5,0
80.44,0.5,5
80.84,0.5,2
81.24,0.5,1
81.64,0.5,0
82.04,0.5,3
82.44,0.5,0
82.84,0.5,1
83.24,0.5,3
83.64,0.5,4
84.04,0.5,1
84.44,0.5,1
84.84,0.5,0
85.24,0.5,1
85.64,0.5,1
86.04,0.5,2
86.44,0.5,3
86.84,0.5,7
87.24,0.5,3
87.64,0.5,10
88.04,0.5,176
88.44,0.5,18
88.84,0.5,6
89.24,0.5,4
89.64,0.5,2
90.04,0.5,3
90.44,0.5,1
90.84,0.5,0
91.24,0.5,1
91.64,0.5,3
92.04,0.5,1
92.44,0.5,0
92.84,0.5,0
93.24,0.5,2
93.64,0.5,3
94.04,0.5,5
94.44,0.5,3
94.84,0.5,37
95.24,0.5,54
95.64,0.5,4
96.04,0.5,0
96.44,0.5,1
96.84,0.5,4
97.24,0.5,3
97.64,0.5,1
98.04,0.5,0
98.44,0.5,2
98.84,0.5,1
99.24,0.5,1
99.64,0.5,0
100.04,0.5,3
100.44,0.5,3
100.84,0.5,0
101.24,0.5,3
101.64,0.5,0
102.04,0.5,1
102.44,0.5,4
102.84,0.5,0
103.24,0.5,2
103.64,0.5,1
104.04,0.5,3
104.44,0.5,2
104.84,0.5,5
105.24,0.5,5
105.64,0.5,2
106.04,0.5,2
106.44,0.5,8
106.84,0.5,27
107.24,0.5,15
107.64,0.5,4
108.04,0.5,4
108.44,0.5,4
108.84,0.5,1
109.24,0.5,3
109.64,0.5,2
110.04,0.5,0
110.44,0.5,3
110.84,0.5,1
111.24,0.5,3
111.64,0.5,4
112.04,0.5,2
112.44,0.5,1
112.84,0.5,4
113.24,0.5,7
113.64,0.5,7
114.04,0.5,49
114.44,0.5,32
114.84,0.5,9
115.24,0.5,4
115.64,0.5,2
116.04,0.5,2
116.44,0.5,1
116.84,0.5,5
117.24,0.5,6
117.64,0.5,3
118.04,0.5,4
118.44,0.5,1
118.84,0.5,2
119.24,0.5,0
119.64,0.5,5
120.04,0.5,1
120.44,0.5,1
120.84,0.5,2
121.24,0.5,0
121.64,0.5,1
122.04,0.5,3
122.44,0.5,2
122.84,0.5,1
123.24,0.5,3
123.64,0.5,6
124.04,0.5,3
124.44,0.5,5
124.84,0.5,2
125.24,0.5,2
125.64,0.5,2
126.04,0.5,5
126.44,0.5,4
126.84,0.5,4
127.24,0.5,12
127.64,0.5,81
128.04,0.5,25
128.44,0.5,12
128.84,0.5,7
129.24,0.5,5
129.64,0.5,1
130.04,0.5,2
130.44,0.5,1
130.84,0.5,3
131.24,0.5,4
131.64,0.5,5
132.04,0.5,0
132.44,0.5,3
132.84,0.5,1
133.24,0.5,3
133.64,0.5,3
134.04,0.5,3
134.44,0.5,4
134.84,0.5,5
135.24,0.5,3
135.64,0.5,3
136.04,0.5,2
136.44,0.5,6
136.84,0.5,22
137.24,0.5,13
137.64,0.5,9
138.04,0.5,4
138.44,0.5,3
138.84,0.5,4
139.24,0.5,2
139.64,0.5,0
139.96,0.5,2